Column 1: Wavelength
Column 2: T3_REF
   376.859985  0.289324
   381.869995  0.306215
   386.880005  0.330738
   391.890015  0.361140
   396.890015  0.386837
   401.899994  0.425180
   406.910004  0.519729
   411.920013  0.662586
   416.929993  0.807047
   421.940002  0.890529
   426.950012  0.930496
   431.959991  0.948252
   436.959991  0.949529
   441.970001  0.942709
   446.980011  0.916289
   451.989990  0.885432
   457.000000  0.860491
   462.010010  0.843355
   467.019989  0.834427
   472.019989  0.822309
   477.029999  0.807902
   482.040009  0.794464
   487.049988  0.783502
   492.059998  0.769571
   497.070007  0.760555
   502.079987  0.753952
   507.089996  0.746905
   512.090027  0.740804
   517.099976  0.735455
   522.109985  0.728560
   527.119995  0.723393
   532.130005  0.719376
   537.140015  0.716193
   542.150024  0.713276
   547.150024  0.710616
   552.159973  0.707484
   557.169983  0.706458
   562.179993  0.704945
   567.190002  0.703550
   572.200012  0.701930
   577.210022  0.700892
   582.219971  0.700101
   587.219971  0.700643
   592.229980  0.699752
   597.239990  0.699401
   602.250000  0.698750
   607.260010  0.698442
   612.270020  0.698031
   617.280029  0.697154
   622.280029  0.696882
   627.289978  0.697041
   632.299988  0.696630
   637.309998  0.696144
   642.320007  0.696383
   647.330017  0.696800
   652.340027  0.697990
   657.349976  0.697639
   662.349976  0.698812
   667.359985  0.700599
   672.369995  0.701922
   677.380005  0.702792
   682.390015  0.704847
   687.400024  0.706621
   692.409973  0.706961
   697.409973  0.708290
   702.419983  0.709255
   707.429993  0.710343
   712.440002  0.712703
   717.450012  0.717021
   722.460022  0.716579
   727.469971  0.717494
   732.479980  0.716177
   737.479980  0.716467
   742.489990  0.716094
   747.500000  0.716093
   752.510010  0.716201
   757.520020  0.721510
   762.530029  0.719150
   767.539978  0.713516
   772.539978  0.715204
   777.549988  0.715349
   782.559998  0.715482
   787.570007  0.716202
   792.580017  0.716212
   797.590027  0.716114
   802.599976  0.716331
   807.609985  0.716679
   812.609985  0.719932
   817.619995  0.719270
   822.630005  0.718280
   827.640015  0.717724
   832.650024  0.716767
   837.659973  0.715606
   842.669983  0.715589
   847.669983  0.715687
   852.679993  0.715628
   857.690002  0.714511
   862.700012  0.715020
   867.710022  0.714443
   872.719971  0.714254
   877.729980  0.714473
   882.739990  0.714732
   887.739990  0.714881
   892.750000  0.717846
   897.760010  0.720445
   902.770020  0.718679
   907.780029  0.721004
   912.789978  0.721115
   917.799988  0.718804
   922.809998  0.720415
   927.809998  0.729259
   932.820007  0.740373
   937.830017  0.733154
   942.840027  0.735184
   947.849976  0.735535
   952.859985  0.733168
   957.869995  0.731672
   962.869995  0.725160
   967.880005  0.720799
   972.890015  0.724620
   977.900024  0.724726
   982.909973  0.725540
   987.919983  0.724195
   992.929993  0.700228
   997.940002  0.691482
  1002.940002  0.693811
  1007.950012  0.695022
  1012.960022  0.695944
  1017.969971  0.696749
  1022.979980  0.697615
  1027.989990  0.698856
  1033.000000  0.700367
  1038.000000  0.701702
  1043.010010  0.702696
  1048.020020  0.703320
  1053.030029  0.703894
  1058.040039  0.704164
  1063.050049  0.704465
  1068.060059  0.705458
  1073.069946  0.706705
  1078.069946  0.707699
  1083.079956  0.707952
  1088.089966  0.708391
  1093.099976  0.709915
  1098.109985  0.712705
  1103.119995  0.716810
  1108.130005  0.724640
  1113.130005  0.736435
  1118.140015  0.744333
  1123.150024  0.737901
  1128.160034  0.726120
  1133.170044  0.717869
  1138.180054  0.720585
  1143.189941  0.722832
  1148.199951  0.716054
  1153.199951  0.705671
  1158.209961  0.701281
  1163.219971  0.701033
  1168.229980  0.702498
  1173.239990  0.703785
  1178.250000  0.704266
  1183.260010  0.703398
  1188.260010  0.701018
  1193.270020  0.699826
  1198.280029  0.699696
  1203.290039  0.698303
  1208.300049  0.696816
  1213.310059  0.695865
  1218.319946  0.695511
  1223.329956  0.695584
  1228.329956  0.695834
  1233.339966  0.696740
  1238.349976  0.697849
  1243.359985  0.698754
  1248.369995  0.699599
  1253.380005  0.701076
  1258.390015  0.702727
  1263.390015  0.703057
  1268.400024  0.701019
  1273.410034  0.699414
  1278.420044  0.700401
  1283.430054  0.701857
  1288.439941  0.703409
  1293.449951  0.704759
  1298.459961  0.706057
  1303.459961  0.707747
  1308.469971  0.709303
  1313.479980  0.710108
  1318.489990  0.711028
  1323.500000  0.715287
  1328.510010  0.717813
  1333.520020  0.717086
  1338.520020  0.723330
  1343.530029  0.741188
  1448.719971  0.590296
  1453.719971  0.585905
  1458.729980  0.592320
  1463.739990  0.597951
  1468.750000  0.591015
  1473.760010  0.579267
  1478.770020  0.572111
  1483.780029  0.564310
  1488.780029  0.560259
  1493.790039  0.560117
  1498.800049  0.562335
  1503.810059  0.564479
  1508.819946  0.566603
  1513.829956  0.569277
  1518.839966  0.570904
  1523.849976  0.571862
  1528.849976  0.572450
  1533.859985  0.572707
  1538.869995  0.573127
  1543.880005  0.574103
  1548.890015  0.575965
  1553.900024  0.578082
  1558.910034  0.580349
  1563.910034  0.583014
  1568.920044  0.585284
  1573.930054  0.585887
  1578.939941  0.586003
  1583.949951  0.587301
  1588.959961  0.589982
  1593.969971  0.593989
  1598.979980  0.598817
  1603.979980  0.603107
  1608.989990  0.608038
  1614.000000  0.613312
  1619.010010  0.618377
  1624.020020  0.623149
  1629.030029  0.627972
  1634.040039  0.632468
  1639.040039  0.635921
  1644.050049  0.639131
  1649.060059  0.642258
  1654.069946  0.645226
  1659.079956  0.648335
  1664.089966  0.650345
  1669.099976  0.651503
  1674.109985  0.652639
  1679.109985  0.652639
  1684.119995  0.652197
  1689.130005  0.651722
  1694.140015  0.650122
  1699.150024  0.648303
  1704.160034  0.647079
  1709.170044  0.646543
  1714.170044  0.647160
  1719.180054  0.647619
  1724.189941  0.647184
  1729.199951  0.645883
  1734.209961  0.644363
  1739.219971  0.642637
  1744.229980  0.639994
  1749.239990  0.638195
  1754.239990  0.637511
  1759.250000  0.636919
  1764.260010  0.637598
  1769.270020  0.638821
  1774.280029  0.640977
  1779.290039  0.641588
  1784.300049  0.645331
  1789.300049  0.651416
  1794.310059  0.663661
  1799.319946  0.671995
  1959.599976  0.496554
  1964.609985  0.493531
  1969.619995  0.491514
  1974.630005  0.497471
  1979.630005  0.502074
  1984.640015  0.506348
  1989.650024  0.512740
  1994.660034  0.520058
  1999.670044  0.529162
  2004.680054  0.534633
  2009.689941  0.537347
  2014.699951  0.540403
  2019.699951  0.538889
  2024.709961  0.536876
  2029.719971  0.535251
  2034.729980  0.531562
  2039.739990  0.527264
  2044.750000  0.523432
  2049.760010  0.517067
  2054.760010  0.509044
  2059.770020  0.500317
  2064.780029  0.492746
  2069.790039  0.483378
  2074.800049  0.474382
  2079.810059  0.468619
  2084.820068  0.463832
  2089.830078  0.459791
  2094.830078  0.457278
  2099.840088  0.455546
  2104.850098  0.455123
  2109.860107  0.456259
  2114.870117  0.459892
  2119.879883  0.464545
  2124.889893  0.470124
  2129.889893  0.475791
  2134.899902  0.481601
  2139.909912  0.486583
  2144.919922  0.490743
  2149.929932  0.495908
  2154.939941  0.500275
  2159.949951  0.502547
  2164.959961  0.505513
  2169.959961  0.509686
  2174.969971  0.513552
  2179.979980  0.517252
  2184.989990  0.520177
  2190.000000  0.524563
  2195.010010  0.528172
  2200.020020  0.528803
  2205.020020  0.531165
  2210.030029  0.532788
  2215.040039  0.534326
  2220.050049  0.535882
  2225.060059  0.538119
  2230.070068  0.537751
  2235.080078  0.535544
  2240.090088  0.531973
  2245.090088  0.526317
  2250.100098  0.516864
  2255.110107  0.501720
  2260.120117  0.488163
  2265.129883  0.473068
  2270.139893  0.462294
  2275.149902  0.460654
  2280.149902  0.463457
  2285.159912  0.467638
  2290.169922  0.467782
  2295.179932  0.466956
  2300.189941  0.463472
  2305.199951  0.456672
  2310.209961  0.451977
  2315.219971  0.448588
  2320.219971  0.443124
  2325.229980  0.438436
  2330.239990  0.435118
  2335.250000  0.433545
  2340.260010  0.432952
  2345.270020  0.433451
  2350.280029  0.435777
  2355.280029  0.435827
  2360.290039  0.437964
  2365.300049  0.439190
  2370.310059  0.439741
  2375.320068  0.443513
  2380.330078  0.446396
  2385.340088  0.450301
  2390.350098  0.447130
  2395.350098  0.447140
  2400.360107  0.450436
  2405.370117  0.450637
  2410.379883  0.450970
  2415.389893  0.447004
  2420.399902  0.437737
  2425.409912  0.437596
  2430.409912  0.434293
  2435.419922  0.429524
  2440.429932  0.416181
  2445.439941  0.417574
  2450.449951  0.414973
  2455.459961  0.393343
  2460.469971  0.386722
  2465.479980  0.382176
  2470.479980  0.373543
  2475.489990  0.385706
  2480.500000  0.389083
