Column 1: Wavelength
Column 2: T4_REF
   376.859985  0.297087
   381.869995  0.282301
   386.880005  0.262692
   391.890015  0.247369
   396.890015  0.230346
   401.899994  0.219421
   406.910004  0.209325
   411.920013  0.200773
   416.929993  0.194023
   421.940002  0.188421
   426.950012  0.184008
   431.959991  0.179894
   436.959991  0.177526
   441.970001  0.175658
   446.980011  0.174715
   451.989990  0.174943
   457.000000  0.175562
   462.010010  0.177024
   467.019989  0.179498
   472.019989  0.182421
   477.029999  0.186475
   482.040009  0.191447
   487.049988  0.197137
   492.059998  0.203834
   497.070007  0.211514
   502.079987  0.220225
   507.089996  0.230251
   512.090027  0.241809
   517.099976  0.255499
   522.109985  0.269319
   527.119995  0.283554
   532.130005  0.299341
   537.140015  0.315390
   542.150024  0.330630
   547.150024  0.345386
   552.159973  0.361158
   557.169983  0.375233
   562.179993  0.386782
   567.190002  0.396559
   572.200012  0.404546
   577.210022  0.411518
   582.219971  0.417522
   587.219971  0.421706
   592.229980  0.424286
   597.239990  0.428474
   602.250000  0.432252
   607.260010  0.434792
   612.270020  0.436626
   617.280029  0.438328
   622.280029  0.440611
   627.289978  0.443801
   632.299988  0.449099
   637.309998  0.456207
   642.320007  0.465224
   647.330017  0.474935
   652.340027  0.488917
   657.349976  0.502496
   662.349976  0.517416
   667.359985  0.531813
   672.369995  0.545219
   677.380005  0.556992
   682.390015  0.567604
   687.400024  0.575354
   692.409973  0.581383
   697.409973  0.588552
   702.419983  0.593505
   707.429993  0.599190
   712.440002  0.603553
   717.450012  0.601321
   722.460022  0.603635
   727.469971  0.604828
   732.479980  0.609972
   737.479980  0.615703
   742.489990  0.620203
   747.500000  0.622315
   752.510010  0.623811
   757.520020  0.626561
   762.530029  0.613897
   767.539978  0.621990
   772.539978  0.625956
   777.549988  0.627017
   782.559998  0.627315
   787.570007  0.626291
   792.580017  0.626282
   797.590027  0.625746
   802.599976  0.625402
   807.609985  0.626407
   812.609985  0.622655
   817.619995  0.617384
   822.630005  0.619681
   827.640015  0.622003
   832.650024  0.622085
   837.659973  0.624967
   842.669983  0.626944
   847.669983  0.628192
   852.679993  0.628112
   857.690002  0.627681
   862.700012  0.628291
   867.710022  0.627355
   872.719971  0.628193
   877.729980  0.628465
   882.739990  0.627438
   887.739990  0.628225
   892.750000  0.626270
   897.760010  0.618445
   902.770020  0.618935
   907.780029  0.616494
   912.789978  0.616150
   917.799988  0.616439
   922.809998  0.620885
   927.809998  0.616833
   932.820007  0.597562
   937.830017  0.596571
   942.840027  0.599268
   947.849976  0.602521
   952.859985  0.603881
   957.869995  0.608361
   962.869995  0.615313
   967.880005  0.621462
   972.890015  0.629865
   977.900024  0.629869
   982.909973  0.641267
   987.919983  0.636720
   992.929993  0.616054
   997.940002  0.618356
  1002.940002  0.620805
  1007.950012  0.622494
  1012.960022  0.623608
  1017.969971  0.624913
  1022.979980  0.626322
  1027.989990  0.628204
  1033.000000  0.630350
  1038.000000  0.632167
  1043.010010  0.633475
  1048.020020  0.634476
  1053.030029  0.635390
  1058.040039  0.636215
  1063.050049  0.637008
  1068.060059  0.638010
  1073.069946  0.639073
  1078.069946  0.639651
  1083.079956  0.639214
  1088.089966  0.638421
  1093.099976  0.637243
  1098.109985  0.635217
  1103.119995  0.633097
  1108.130005  0.632511
  1113.130005  0.630642
  1118.140015  0.620344
  1123.150024  0.600424
  1128.160034  0.589326
  1133.170044  0.589711
  1138.180054  0.598745
  1143.189941  0.603041
  1148.199951  0.602216
  1153.199951  0.604940
  1158.209961  0.613385
  1163.219971  0.622606
  1168.229980  0.630527
  1173.239990  0.635657
  1178.250000  0.639009
  1183.260010  0.641274
  1188.260010  0.642995
  1193.270020  0.645671
  1198.280029  0.648360
  1203.290039  0.649742
  1208.300049  0.650989
  1213.310059  0.652556
  1218.319946  0.654635
  1223.329956  0.656743
  1228.329956  0.658700
  1233.339966  0.661091
  1238.349976  0.662952
  1243.359985  0.664166
  1248.369995  0.664987
  1253.380005  0.665765
  1258.390015  0.666134
  1263.390015  0.665360
  1268.400024  0.663531
  1273.410034  0.662941
  1278.420044  0.664513
  1283.430054  0.665710
  1288.439941  0.665506
  1293.449951  0.664322
  1298.459961  0.662852
  1303.459961  0.661202
  1308.469971  0.658910
  1313.479980  0.656374
  1318.489990  0.653820
  1323.500000  0.652850
  1328.510010  0.648203
  1333.520020  0.641627
  1338.520020  0.642388
  1343.530029  0.647820
  1448.719971  0.579901
  1453.719971  0.589775
  1458.729980  0.602854
  1463.739990  0.608601
  1468.750000  0.604921
  1473.760010  0.602534
  1478.770020  0.606128
  1483.780029  0.609097
  1488.780029  0.617950
  1493.790039  0.628486
  1498.800049  0.636575
  1503.810059  0.642582
  1508.819946  0.646892
  1513.829956  0.650564
  1518.839966  0.653777
  1523.849976  0.656725
  1528.849976  0.659240
  1533.859985  0.661518
  1538.869995  0.663182
  1543.880005  0.664640
  1548.890015  0.666008
  1553.900024  0.667180
  1558.910034  0.668042
  1563.910034  0.669079
  1568.920044  0.669526
  1573.930054  0.668645
  1578.939941  0.668289
  1583.949951  0.669177
  1588.959961  0.669842
  1593.969971  0.670031
  1598.979980  0.669011
  1603.979980  0.666697
  1608.989990  0.664474
  1614.000000  0.663018
  1619.010010  0.661860
  1624.020020  0.660045
  1629.030029  0.656877
  1634.040039  0.649956
  1639.040039  0.636269
  1644.050049  0.617205
  1649.060059  0.595354
  1654.069946  0.574068
  1659.079956  0.561734
  1664.089966  0.566692
  1669.099976  0.580358
  1674.109985  0.593229
  1679.109985  0.603205
  1684.119995  0.612877
  1689.130005  0.622137
  1694.140015  0.626207
  1699.150024  0.625562
  1704.160034  0.623322
  1709.170044  0.621837
  1714.170044  0.622442
  1719.180054  0.622276
  1724.189941  0.622590
  1729.199951  0.624134
  1734.209961  0.626393
  1739.219971  0.630036
  1744.229980  0.632392
  1749.239990  0.633946
  1754.239990  0.635832
  1759.250000  0.635786
  1764.260010  0.635528
  1769.270020  0.634655
  1774.280029  0.634505
  1779.290039  0.631681
  1784.300049  0.631626
  1789.300049  0.626579
  1794.310059  0.624633
  1799.319946  0.619921
  1959.599976  0.544660
  1964.609985  0.561656
  1969.619995  0.576206
  1974.630005  0.585286
  1979.630005  0.589853
  1984.640015  0.595784
  1989.650024  0.599733
  1994.660034  0.603562
  1999.670044  0.606822
  2004.680054  0.605281
  2009.689941  0.606923
  2014.699951  0.608830
  2019.699951  0.610057
  2024.709961  0.615558
  2029.719971  0.620480
  2034.729980  0.624848
  2039.739990  0.626236
  2044.750000  0.628486
  2049.760010  0.629285
  2054.760010  0.628264
  2059.770020  0.626496
  2064.780029  0.624251
  2069.790039  0.620747
  2074.800049  0.617772
  2079.810059  0.615149
  2084.820068  0.614461
  2089.830078  0.615004
  2094.830078  0.617451
  2099.840088  0.614747
  2104.850098  0.607093
  2109.860107  0.595001
  2114.870117  0.578253
  2119.879883  0.563215
  2124.889893  0.546260
  2129.889893  0.532441
  2134.899902  0.536505
  2139.909912  0.549249
  2144.919922  0.555001
  2149.929932  0.546822
  2154.939941  0.536080
  2159.949951  0.539912
  2164.959961  0.552255
  2169.959961  0.557755
  2174.969971  0.552809
  2179.979980  0.547305
  2184.989990  0.548840
  2190.000000  0.556727
  2195.010010  0.560076
  2200.020020  0.555079
  2205.020020  0.550000
  2210.030029  0.547330
  2215.040039  0.542421
  2220.050049  0.530341
  2225.060059  0.512135
  2230.070068  0.492593
  2235.080078  0.466078
  2240.090088  0.436820
  2245.090088  0.419826
  2250.100098  0.411844
  2255.110107  0.410610
  2260.120117  0.421733
  2265.129883  0.432770
  2270.139893  0.441308
  2275.149902  0.450288
  2280.149902  0.455349
  2285.159912  0.455622
  2290.169922  0.452870
  2295.179932  0.449786
  2300.189941  0.446419
  2305.199951  0.442778
  2310.209961  0.440593
  2315.219971  0.434170
  2320.219971  0.423559
  2325.229980  0.414656
  2330.239990  0.414726
  2335.250000  0.417266
  2340.260010  0.418500
  2345.270020  0.423802
  2350.280029  0.419446
  2355.280029  0.423657
  2360.290039  0.424415
  2365.300049  0.427338
  2370.310059  0.431051
  2375.320068  0.430164
  2380.330078  0.432716
  2385.340088  0.426006
  2390.350098  0.424707
  2395.350098  0.431146
  2400.360107  0.438471
  2405.370117  0.440930
  2410.379883  0.437372
  2415.389893  0.434453
  2420.399902  0.427350
  2425.409912  0.414446
  2430.409912  0.413523
  2435.419922  0.392206
  2440.429932  0.366604
  2445.439941  0.359725
  2450.449951  0.378697
  2455.459961  0.400551
  2460.469971  0.409591
  2465.479980  0.427130
  2470.479980  0.435595
  2475.489990  0.432480
  2480.500000  0.448684
