Column 1: Wavelength
Column 2: T5_REF
   376.859985  0.031716
   381.869995  0.029842
   386.880005  0.027559
   391.890015  0.025741
   396.890015  0.023768
   401.899994  0.022323
   406.910004  0.021070
   411.920013  0.020030
   416.929993  0.019109
   421.940002  0.018414
   426.950012  0.017813
   431.959991  0.017274
   436.959991  0.016923
   441.970001  0.016669
   446.980011  0.016430
   451.989990  0.016301
   457.000000  0.016200
   462.010010  0.016100
   467.019989  0.016006
   472.019989  0.016000
   477.029999  0.016000
   482.040009  0.016000
   487.049988  0.016000
   492.059998  0.016000
   497.070007  0.016006
   502.079987  0.016094
   507.089996  0.016106
   512.090027  0.016194
   517.099976  0.016194
   522.109985  0.016106
   527.119995  0.016094
   532.130005  0.016000
   537.140015  0.015900
   542.150024  0.015799
   547.150024  0.015673
   552.159973  0.015514
   557.169983  0.015400
   562.179993  0.015295
   567.190002  0.015200
   572.200012  0.015106
   577.210022  0.015100
   582.219971  0.015100
   587.219971  0.015100
   592.229980  0.015106
   597.239990  0.015200
   602.250000  0.015300
   607.260010  0.015400
   612.270020  0.015505
   617.280029  0.015693
   622.280029  0.015807
   627.289978  0.016030
   632.299988  0.016311
   637.309998  0.016765
   642.320007  0.017249
   647.330017  0.018035
   652.340027  0.019300
   657.349976  0.020789
   662.349976  0.022658
   667.359985  0.025903
   672.369995  0.030793
   677.380005  0.037581
   682.390015  0.046835
   687.400024  0.058770
   692.409973  0.073662
   697.409973  0.092094
   702.419983  0.113585
   707.429993  0.137865
   712.440002  0.164991
   717.450012  0.190624
   722.460022  0.221632
   727.469971  0.252476
   732.479980  0.287264
   737.479980  0.320021
   742.489990  0.350703
   747.500000  0.377173
   752.510010  0.400045
   757.520020  0.418425
   762.530029  0.423160
   767.539978  0.445960
   772.539978  0.459909
   777.549988  0.468941
   782.559998  0.475790
   787.570007  0.479823
   792.580017  0.484220
   797.590027  0.487348
   802.599976  0.490012
   807.609985  0.493574
   812.609985  0.491911
   817.619995  0.489094
   822.630005  0.493654
   827.640015  0.497353
   832.650024  0.499762
   837.659973  0.504016
   842.669983  0.507638
   847.669983  0.510224
   852.679993  0.511137
   857.690002  0.512510
   862.700012  0.513514
   867.710022  0.514761
   872.719971  0.516609
   877.729980  0.517953
   882.739990  0.518476
   887.739990  0.518341
   892.750000  0.516733
   897.760010  0.509174
   902.770020  0.510270
   907.780029  0.508244
   912.789978  0.506918
   917.799988  0.509350
   922.809998  0.512222
   927.809998  0.504379
   932.820007  0.475642
   937.830017  0.477359
   942.840027  0.477942
   947.849976  0.475857
   952.859985  0.480788
   957.869995  0.484870
   962.869995  0.496676
   967.880005  0.504107
   972.890015  0.507797
   977.900024  0.510522
   982.909973  0.510222
   987.919983  0.516092
   992.929993  0.525147
   997.940002  0.528283
  1002.940002  0.530166
  1007.950012  0.531507
  1012.960022  0.532495
  1017.969971  0.533618
  1022.979980  0.534913
  1027.989990  0.536511
  1033.000000  0.538273
  1038.000000  0.539785
  1043.010010  0.540830
  1048.020020  0.541631
  1053.030029  0.542490
  1058.040039  0.543251
  1063.050049  0.543746
  1068.060059  0.544224
  1073.069946  0.544699
  1078.069946  0.544728
  1083.079956  0.544050
  1088.089966  0.542769
  1093.099976  0.540817
  1098.109985  0.537456
  1103.119995  0.533297
  1108.130005  0.529290
  1113.130005  0.524595
  1118.140015  0.513208
  1123.150024  0.493006
  1128.160034  0.478768
  1133.170044  0.477331
  1138.180054  0.483983
  1143.189941  0.487132
  1148.199951  0.487083
  1153.199951  0.489073
  1158.209961  0.494903
  1163.219971  0.500609
  1168.229980  0.505050
  1173.239990  0.508026
  1178.250000  0.510035
  1183.260010  0.511916
  1188.260010  0.514140
  1193.270020  0.517206
  1198.280029  0.520060
  1203.290039  0.521942
  1208.300049  0.523701
  1213.310059  0.525654
  1218.319946  0.527835
  1223.329956  0.530033
  1228.329956  0.532188
  1233.339966  0.534595
  1238.349976  0.536530
  1243.359985  0.537739
  1248.369995  0.538321
  1253.380005  0.538469
  1258.390015  0.538068
  1263.390015  0.537005
  1268.400024  0.535717
  1273.410034  0.535315
  1278.420044  0.536316
  1283.430054  0.536928
  1288.439941  0.536797
  1293.449951  0.535556
  1298.459961  0.533782
  1303.459961  0.531596
  1308.469971  0.528623
  1313.479980  0.525065
  1318.489990  0.521196
  1323.500000  0.517553
  1328.510010  0.511938
  1333.520020  0.504599
  1338.520020  0.500910
  1343.530029  0.500574
  1448.719971  0.427497
  1453.719971  0.429105
  1458.729980  0.432649
  1463.739990  0.436282
  1468.750000  0.435828
  1473.760010  0.433793
  1478.770020  0.434379
  1483.780029  0.435749
  1488.780029  0.441389
  1493.790039  0.448031
  1498.800049  0.453572
  1503.810059  0.458015
  1508.819946  0.461472
  1513.829956  0.464366
  1518.839966  0.467037
  1523.849976  0.469229
  1528.849976  0.471316
  1533.859985  0.473296
  1538.869995  0.475126
  1543.880005  0.476644
  1548.890015  0.478140
  1553.900024  0.479589
  1558.910034  0.480858
  1563.910034  0.481993
  1568.920044  0.482793
  1573.930054  0.483101
  1578.939941  0.483503
  1583.949951  0.484551
  1588.959961  0.485370
  1593.969971  0.485550
  1598.979980  0.484829
  1603.979980  0.482844
  1608.989990  0.479701
  1614.000000  0.476841
  1619.010010  0.474593
  1624.020020  0.471193
  1629.030029  0.466140
  1634.040039  0.457457
  1639.040039  0.441514
  1644.050049  0.420606
  1649.060059  0.398166
  1654.069946  0.377665
  1659.079956  0.365379
  1664.089966  0.369343
  1669.099976  0.381699
  1674.109985  0.394041
  1679.109985  0.404415
  1684.119995  0.414703
  1689.130005  0.424618
  1694.140015  0.429644
  1699.150024  0.428863
  1704.160034  0.426488
  1709.170044  0.425617
  1714.170044  0.425968
  1719.180054  0.425900
  1724.189941  0.426292
  1729.199951  0.427941
  1734.209961  0.431087
  1739.219971  0.435580
  1744.229980  0.439659
  1749.239990  0.442423
  1754.239990  0.443716
  1759.250000  0.444496
  1764.260010  0.444849
  1769.270020  0.444550
  1774.280029  0.444963
  1779.290039  0.444666
  1784.300049  0.444933
  1789.300049  0.443342
  1794.310059  0.440995
  1799.319946  0.437745
  1959.599976  0.353454
  1964.609985  0.382338
  1969.619995  0.386427
  1974.630005  0.396145
  1979.630005  0.401002
  1984.640015  0.403808
  1989.650024  0.407277
  1994.660034  0.408877
  1999.670044  0.411483
  2004.680054  0.407902
  2009.689941  0.408632
  2014.699951  0.409912
  2019.699951  0.408521
  2024.709961  0.412633
  2029.719971  0.415884
  2034.729980  0.418958
  2039.739990  0.419428
  2044.750000  0.420772
  2049.760010  0.417514
  2054.760010  0.418054
  2059.770020  0.418161
  2064.780029  0.414067
  2069.790039  0.410152
  2074.800049  0.405803
  2079.810059  0.403852
  2084.820068  0.404445
  2089.830078  0.406004
  2094.830078  0.408839
  2099.840088  0.404783
  2104.850098  0.398700
  2109.860107  0.389525
  2114.870117  0.374590
  2119.879883  0.361537
  2124.889893  0.349101
  2129.889893  0.341064
  2134.899902  0.344469
  2139.909912  0.357325
  2144.919922  0.363901
  2149.929932  0.359377
  2154.939941  0.355172
  2159.949951  0.362075
  2164.959961  0.373989
  2169.959961  0.381725
  2174.969971  0.376614
  2179.979980  0.372000
  2184.989990  0.376696
  2190.000000  0.386612
  2195.010010  0.390375
  2200.020020  0.392135
  2205.020020  0.388653
  2210.030029  0.385621
  2215.040039  0.374257
  2220.050049  0.358034
  2225.060059  0.338548
  2230.070068  0.320714
  2235.080078  0.299966
  2240.090088  0.281194
  2245.090088  0.269273
  2250.100098  0.262184
  2255.110107  0.261930
  2260.120117  0.269060
  2265.129883  0.278431
  2270.139893  0.283776
  2275.149902  0.289798
  2280.149902  0.292419
  2285.159912  0.295541
  2290.169922  0.293176
  2295.179932  0.291176
  2300.189941  0.288797
  2305.199951  0.286041
  2310.209961  0.285979
  2315.219971  0.278238
  2320.219971  0.272716
  2325.229980  0.266578
  2330.239990  0.264669
  2335.250000  0.266789
  2340.260010  0.267438
  2345.270020  0.271451
  2350.280029  0.270066
  2355.280029  0.273007
  2360.290039  0.277188
  2365.300049  0.272825
  2370.310059  0.280734
  2375.320068  0.277974
  2380.330078  0.281110
  2385.340088  0.279792
  2390.350098  0.277612
  2395.350098  0.276620
  2400.360107  0.279749
  2405.370117  0.290935
  2410.379883  0.281542
  2415.389893  0.273807
  2420.399902  0.280437
  2425.409912  0.273076
  2430.409912  0.275110
  2435.419922  0.252409
  2440.429932  0.249884
  2445.439941  0.253056
  2450.449951  0.269902
  2455.459961  0.267101
  2460.469971  0.267091
  2465.479980  0.296403
  2470.479980  0.275772
  2475.489990  0.311268
  2480.500000  0.266391
